rootMass(mg)	
0.0	
0.0	
0.9714436926366637	
2.9325153130222326	
5.901167065820747	
9.895080542697137	
13.425893193298208	
15.485961086379007	
18.00315279976876	
20.791415903375736	
24.039615337350508	
28.164858716119745	
32.87279950685186	
38.88232192520944	
46.25417086790573	
54.41670278449767	
63.84789386685286	
75.57788771522596	
89.35159526078503	
106.18363270286403	
126.33064252334555	
148.75408329195417	
172.42191928469074	
197.3397908779185	
223.51225528921856	
250.9427432644104	
279.63351613699086	
309.58562332818076	
340.7988603566437	
373.271727427709	
407.00138867258664	
441.9836321086003	
478.2128303918913	
515.681902434345	
554.3822759566714	
594.303851049624	
635.4349648152692	
677.762357160009	
721.2711378107297	
765.9447546249772	
811.7649632654591	
858.7117983084335	
906.7635458546756	
955.8967177107006	
1006.0860272067787	
1057.3043667169923	
1109.5227869451774	
1162.710478039027	
1216.83475259296	
1271.8610305985349	
1327.7528263992358	
1384.471737704387	
1441.9774367147336	
1500.2276634099092	
1559.1782210455424	
1618.7829739051945	
1678.9938473496215	
1739.7608302030565	
1801.0319795132948	
1862.753427719352	
